File: gsoc_xylib/samples/uxd/CDLY15F2.UXD
; \\Cdlhp16\home\diff\mesures\raw2006\CDLY15F2.raw(Diffrac Plus V1.01 file) converted by XCH V1.0
_FILEVERSION=2
_SAMPLE='LaB6 - FF 0.01  avec AAS'
_SITE='France'
_USER='R. VERA'
_ATTACHMENTS_CODE=0
_GONIOMETER_RADIUS=250
_FIXED_DIVSLIT=0.600000
_FIXED_SAMPLESLIT=0.000000
_FIXED_DETSLIT=12.09
_MONOCHROMATOR=0
; None
_THIN_FILM='N'
_BETA_FILTER='Y'
_FIXED_ANTISLIT=7.870000
_ANALYZER_CODE=0
; None
_DATEMEASURED='10-Apr-2006 16:17:08'
_WL_UNIT='A'
_WL1=1.540600
_WL2=1.544390
_WL3=1.392220
_WLRATIO=0.500000
_ANODE='Cu'
; (Data for Range number 1)
_DRIVE='COUPLED'
_STEPTIME=33.44
_STEPSIZE=0.021811
_STEPMODE='C'
_START=4.500000
_THETA=2.250000
_2THETA=4.500000
_KHI=0.000000
_PHI=0.000000
_X=0.000000
_Y=0.000000
_Z=0.000000
_DIVERGENCE=0.100000
_ANTISCATTER=0.000000
_DETECTOR=5
_HV=0.000000
_GAIN=0.000000
_LLD=0.000000
_ULD=0.000000
_DETECTORSLIT='unkn'
_AUX1=0.000000
_AUX2=0.000000
_AUX3=0.000000
_TIMESTARTED=15
_TEMP_RATE=-1.000000
_TEMP_DELAY=-1.000000
_KV=33
_MA=45
_RANGE_WL=1.540600
_3DPLANE=0
_GONIOMETER=2.978800
_PSDCHANNEL0=0
_COUNTS
       18        19        36        29        22        34        28        24
       10         5         9         9         6         7        10         9
        9         3        10         7         8         8         7        11
        9         9         6        11        10         9        12         6
        8         6         6        13        10        11        12         9
        6        12         8        12        16        11        13        12
       12         9         7        11         6        10        16        13
       13        14        11        14         9        11         7        11
        6         9         7        12         3        10         5         4
        8        11        12         3         7         5        16         8
        2         9         6         7         9         7         7         6
       11         6         3        10         8        10         4         5
        2        11         9         9         6         4         8        11
        5         7         5         5         1        11         3         4
        9        17         9        14        13        10        13        10
        5        10         3         8         6         7         6         3
        6         6         9         6         7         7         8         6
        5         4         7         3         5         2         9        10
        6         4         6         2         5         3         5         5
       10         8         3         5         8         6         4         5
        4         3         4        10         2         8         7         4
       20        27        48        41        66        80       111       195
       12         9        13         5         7         7         5         6
        4         4         9         6         6         9         5         5
        2         7         5         8         4        16         7         4
        5         8         6         5         6         5         4         7
        6         8         6         1         4         7         3         8
      122       162       169        98        42        43        25        25
        8         9        12         8        10        13         7         5
        7         4         5         8        12        10         4        10
        7         9        10         5         5         5         9         6
        9         4         6         3         6        10         4         5
       91        89        55        33        21        12         9        14
       11         9        11         3        12        11         4         5
        5         4         5         6         6         6         9         3
       12         9         5         3         8        10         4         8
        8         6         7         9         8         7         7        13
       14         9         7         7         5         6        10         6
        6         5         5         4         6         4         3        12
        7         5         7         6         5         4         5         8
        7         3         6         7         3        15        13         9
        3         8         7         1         8         5         3         4
        6         8         6         3         4         7         7         4
        4         6         8         5         7         9         8         7
        3         6         9         7         5         7         5         4
        5         6         6         8         6         2         4         6
        1         6         4         5         7         5         4         3
        1         1         6         1         5         6         2         6
       11        26        48        51        43        40        22        20
        4         8         5         6         2         7         5         6
        2         7         7        10         3         3         6         8
        6         6         0         9         6         6         9         4
        5         4         5         6         5         8         6         5
        5         5        10         4         7         4         6         8
        6         2         3         2         4         5         6         7
       52        68       134       127        59        36        30        24
        5         3         4         3         4        10         6         6
        7         7         5         1         3         5         2         5
        4         1         3         8         6         4         5         8
        6         3         5         1         3         6         5         3
        3         4         4         5         3         2         1         4
        4         8         5         4         5         3         3         6
        7         5         7         3         5         2         9         5
        4         3         3         0         3         7         2         4
        6         2         3         4         5         6         5         5
       11        11        12         5        10        10        12        14
        6         5         6         3        11         6         5         5
        4         5         4         5         4         7         5         5
        8        16         8        15        16        18        15        31
        3         4         7         4         3         5        10         4
        5         5         3         3         3         6         4         2
        8         2         2         3         7         0         6         4
        2         5         4         5         8         7         4         2
       10         7         4         4         7         4         2         5
        5         4         7         2         2         1         7         7
        5         7         5         4         8         2         8         6
        2         5         2         4         2         6         4         3
        3         2         7         0         5         2         1         5
       14        10         9        13        13        23        16        28
        7         6         3         1         6         3         3         7
        3         3         3         2         3         2         4         6
        9         6        11         4        11        12        13        22
        3         2         5         1         3         3         3         3
        6         4         4         6         5         3         4         2
        2         1         4         3         2         4         5         2
        2         3         1         2         4         2         3         7
        1         2         3         2         3         2         2         0
        1         1         1         1         2         0         1         1
        1         1         3         2         1         0         5         1
        0         0         2         1         1         1         0         1
        0         0         2         1         0         1         0         0
        0         1         0         1         0         2         1         1
        0         1         0         0         0         0         0         0
        1         0         0         0         1         0         0         0
        0         0         0         1         0         0         0         0
        0         0         0         0         0         0         0         0
        0         0         0         0         0         0         0         0
        0         0         0         0         1         0         0         0
        0         0         0         0         0         0         0         0
        1         0         0         0         0         0         0         0
        0         0         0         0         1         0         0         0
        0         0         0         0         0         1         0         0
        0         1         3         0         0         0         0         0
        0         0         0         2         0         0         1         1
        1         1         0         0         0         0         0         0
        0         0         0         0         0         0         0         0
        0         0         0         0         0         0         0         0
        0         0         0         0         0         0         0         1
        0         0         0         0         0         0         0         0
        0         0         0         0         0         0         0         0
        0         0         0         0         0         0         0         0
        0         0         0         0         0         0         0         1
        0         0         0         0         0         0         0         0
        0         0         0         0         1         1         0         0
        0         0         0         0         0         0         0         0
        0         0         0         0         0         0         0         0
        0         0         1         0         0         0         0         0
        0         0         0         0         0         0         0         0
        0         0         0         0         0         0         0         0
        0         0         0         0         0         0         0         1