File: samples/test4.csv
This file is based on SSRF-1.csv posted to fityk-users and has :\backslashes\2
2-Theta Angle (Degrees)
Intensity
       3000
 0.00604613  0.0000000E+00
 0.0181384  0.0000000E+00
 0.0302306  0.0000000E+00
 0.0423229  0.0000000E+00
 0.0544152 -1
 0.0665074 -1.50519
 0.0785997 -3.79042
 0.0906919  1.3851
 0.102784  0.472747
 0.114876 -1.1889
 0.126969 -0.0845023
 0.139061 -0.113139
 0.151153 -2.39004
 0.163245  0.770781